Sliced ZRNMOF90 DMF Ar 300 700 nm 10 us Delta OD

Labels,0.000 ns,0.000 ns,1.000 ns,2.000 ns,3.000 ns,
Type,Emission Scan,Emission Scan,Emission Scan,Emission Scan,Emission Scan,
Comment,,,,,,
Start,300.00,300.00,300.00,300.00,300.00,
Stop,700.00,700.00,700.00,700.00,700.00,
Step,10.00,10.00,10.00,10.00,10.00,
Fixed/Offset,n/a,n/a,n/a,n/a,n/a,
Xaxis,Wavelength,Wavelength,Wavelength,Wavelength,Wavelength,
Yaxis,Delta OD,Delta OD,Delta OD,Delta OD,Delta OD,
Scan Corr. by File,False,False,False,False,False,
Corr. by Ref. Det.,False,False,False,False,False,
Fixed/Offset Corr. by File,n/a,n/a,n/a,n/a,n/a,
Repeats,0,0,0,0,0,
Dwell Time,0.00,0.00,0.00,0.00,0.00,
Lamp,,,,,,
Temp,0.00,0.00,0.00,0.00,0.00,
Scan Polariser,None,None,None,None,None,
Scan Slit,0.00,0.00,0.00,0.00,0.00,
Fixed/Offset Polariser,n/a,n/a,n/a,n/a,n/a,
Fixed/Offset Slit,n/a,n/a,n/a,n/a,n/a,
Detector,,,,,,

300.00,-1.18688988E-2,-1.18418178E-2,-1.18503133E-2,-1.05906753E-2,-1.53948776E-2,
310.00,-6.41924515E-3,-3.99893103E-3,-1.61685061E-3,3.14949034E-3,2.40503950E-3,
320.00,-9.84486099E-3,-5.73900249E-3,-5.24839899E-3,-5.28879557E-3,-4.19081608E-3,
330.00,-3.49682174E-3,-2.20814976E-3,-2.63703405E-3,-5.29170036E-3,-6.91333134E-3,
340.00,-1.33673684E-3,-4.05174354E-3,-5.81039255E-3,-5.01035759E-3,-3.05415574E-3,
350.00,-4.81562456E-3,-3.16368719E-3,-2.43898132E-3,-6.81335060E-3,-9.69940983E-3,
360.00,-2.91823060E-3,-2.25426676E-3,-2.47557787E-3,-2.55267625E-3,-2.97385594E-3,
370.00,-6.25564018E-3,-8.88253562E-3,-4.55559697E-3,-3.23312054E-3,-5.69953583E-3,
380.00,-2.16671429E-3,-1.32894420E-4,2.42168247E-3,1.57530745E-3,-2.15122127E-3,
390.00,-2.40668003E-3,-2.49491679E-3,-2.00494146E-3,8.72686214E-4,7.69172097E-4,
400.00,-8.77594925E-4,-1.53317128E-3,-4.43570875E-3,-3.52226873E-3,-3.73584405E-3,
410.00,-5.95685560E-3,2.13457341E-3,7.40154414E-3,2.61500687E-3,1.06550881E-3,
420.00,-8.79141316E-3,-3.82178184E-3,-3.15561728E-3,-6.86991774E-3,-1.23072704E-2,
430.00,-8.62892717E-3,-1.17119327E-2,-1.07621187E-2,-8.09544791E-3,-4.52763867E-3,
440.00,-1.01848869E-2,-7.52932811E-3,-9.58515517E-3,-1.17270350E-2,-9.52891819E-3,
450.00,-4.69012605E-3,-1.44504057E-3,-4.35822736E-3,-4.41999221E-3,-3.94901633E-3,
460.00,-8.21718760E-3,-6.89288694E-3,-7.11137336E-3,-5.84650552E-3,-4.33788961E-3,
470.00,-2.45309575E-3,-4.30818554E-3,-6.43330580E-3,-7.50373770E-3,-7.33078690E-3,
480.00,-6.37587905E-3,-5.17563615E-3,-6.74555637E-3,-6.03054650E-3,-5.16942469E-3,
490.00,-8.61616153E-3,-5.63101796E-3,-1.96859194E-3,-7.37309514E-4,-2.45077605E-3,
500.00,-6.34341035E-3,-3.11796227E-3,-4.71160607E-3,-5.65645564E-3,-5.60568552E-3,
510.00,-7.95125030E-3,-7.40973651E-3,-5.18193515E-3,-3.52003286E-3,-3.31225898E-3,
520.00,-8.46388564E-3,-6.34498196E-3,-5.69674699E-3,-5.57498913E-3,-7.12659257E-3,
530.00,-1.01066986E-2,-8.39466322E-3,-5.79984114E-3,-5.07081719E-3,-5.69051970E-3,
540.00,-7.92582426E-3,-1.01945773E-2,-9.98455193E-3,-6.71892148E-3,-3.28150555E-3,
550.00,-6.56180643E-3,-3.18129174E-3,-1.82441436E-3,-2.31058779E-3,-1.16534799E-3,
560.00,-4.36480949E-3,-6.84712781E-3,-5.79354260E-3,-4.71558236E-3,-6.96053635E-3,
570.00,-1.20196829E-3,9.61451267E-4,-2.75871227E-3,-4.67550009E-3,-2.97899195E-3,
580.00,-2.14125658E-3,3.91579175E-4,2.78397324E-3,1.08404388E-3,-4.16844443E-4,
590.00,-1.55560183E-3,-1.37453584E-3,9.58276156E-4,-1.01448817E-3,-5.59203373E-3,
600.00,-9.01496038E-3,-3.87726724E-3,-3.86816519E-3,-3.51807917E-3,-2.86772754E-3,
610.00,4.62825783E-3,2.06674566E-3,1.71908957E-3,-4.26977713E-5,-4.14795359E-4,
620.00,-5.24512259E-3,-1.07581532E-2,-9.93453059E-3,-7.41496077E-3,-4.09116782E-3,
630.00,5.02796704E-3,1.69273361E-3,1.16881391E-3,5.92541322E-3,1.09644700E-2,
640.00,-1.39633063E-4,-5.07600140E-3,-2.54131854E-3,-5.28032053E-3,-4.78813611E-3,
650.00,3.08432593E-3,4.53029387E-3,4.71100723E-3,3.65095492E-3,3.08681000E-3,
660.00,-5.38005680E-3,1.39295473E-3,2.17105844E-3,-2.96675880E-3,-1.25798779E-2,
670.00,-2.10581906E-2,-5.58121921E-3,1.19269621E-2,1.78445037E-2,1.34756314E-2,
680.00,-1.38823502E-2,-1.83719844E-2,-1.51858665E-2,-5.78133157E-3,6.67425338E-3,
690.00,-5.25422348E-3,-1.04291597E-2,-1.35025717E-2,-1.80165414E-2,-2.46995334E-2,
700.00,-1.17323287E-2,-2.14624759E-2,-2.27008387E-2,-1.54674575E-2,-9.88124404E-3,
